
*** Basic info ***

Catalog row index (zero-based): 134
Common name: HESS J1848-018
Gamma names: HESS J1848-018,1HWC J1849-017c
Fermi names: --
Other names: WR121a,W43
Location: gal
Class: unid

TeVCat ID: 187
TeVCat 2 ID: hcE3Ou
TeVCat name: TeV J1848-017

TGeVCat ID: 128
TGeVCat name: TeV J1848-0147

Discoverer: hess
Discovery date: 2008-07
Seen by: hess
Reference: 2008AIPC.1085..372C

*** Position info ***

SIMBAD:
RA: 282.120 deg
DEC: -1.792 deg
GLON: 31.000 deg
GLAT: -0.159 deg

Measurement:
RA: 282.121 deg
DEC: -1.792 deg
GLON: 31.000 deg
GLAT: -0.160 deg
Position error: 0.000 deg

*** Morphology info ***

Morphology model type: gauss
Sigma: 0.320 deg
Sigma error: 0.020 deg
Sigma2: 0.000 deg
Sigma2 error: 0.000 deg
Position angle: 0.000 deg
Position angle error: 0.000 deg
Position angle frame: --

*** Spectral info ***

Significance: 9.000
Livetime: 50.000 h

Spectrum type: pl
norm: 3.7e-12 1 / (cm2 s TeV) +- 4e-13 1 / (cm2 s TeV) (stat) +- 7e-13 1 / (cm2 s TeV) (sys) cm-2 s-1 TeV-1
index: 2.8 +- 0.2 (stat) +- 0.2 (sys)
reference: 1.0 TeV

Energy range: (0.9, 12.0) TeV
theta: 0.2 deg


Derived fluxes:
Spectral model norm (1 TeV): 3.7e-12 1 / (cm2 s TeV) +- 4e-13 1 / (cm2 s TeV) (stat) cm-2 s-1 TeV-1
Integrated flux (>1 TeV): 2.06e-12 +- 3.19e-13 (stat) cm-2 s-1
Integrated flux (>1 TeV): 9.909 +- 1.536 (% Crab)
Integrated flux (1-10 TeV): 6.24e-12 +- 1.22e-12 (stat) erg cm-2 s-1

*** Spectral points ***

SED reference ID: 2008AIPC.1085..372C
Number of spectral points: 11
Number of upper limits: 0

e_ref        dnde         dnde_errn       dnde_errp   
 TeV   1 / (cm2 s TeV) 1 / (cm2 s TeV) 1 / (cm2 s TeV)
------ --------------- --------------- ---------------
 0.624       9.942e-12       3.301e-12       3.265e-12
 0.878       6.815e-12       1.042e-12       1.029e-12
 1.284       1.707e-12       3.889e-13       3.826e-13
 1.881       5.027e-13       1.566e-13       1.533e-13
 2.754       3.266e-13       7.526e-14       7.323e-14
 4.033       8.183e-14       3.609e-14       3.503e-14
 5.905       2.979e-14       1.981e-14       1.921e-14
 8.648       4.022e-15       9.068e-15       8.729e-15
12.663      -6.647e-15       3.786e-15       3.675e-15
18.542       3.735e-15       2.009e-15       1.786e-15
27.173      -5.317e-16       9.236e-16       8.568e-16
